X/Ã…       Temperature/K
3.61      356.917   
7.22      358.855   
10.83     373.253   
14.44     368.21    
18.05     316.836   
21.66     289.181   
25.27     271.516   
28.88     296.968   
32.49     293.333   
36.1      316.31    
39.71     298.868   
43.32     258.765   
46.93     291.424   
50.54     314.077   
54.15     325.417   
57.76     276.115   
61.37     227.319   
64.98     249.402   
68.59     285.047   
72.2      309.698   
